Frequency (Hz) - Plot 0	Fase (Deg) - Plot 0	
1000.06	54.831	
1100.06	56.5834	
1100.06	56.5914	
1199.9	58.0045	
1299.92	59.1838	
1299.93	59.1825	
1399.96	60.1462	
1499.98	60.9307	
1499.97	60.9427	
1599.99	61.5868	
1700.02	62.1077	
1700.02	62.1069	
1717.18	61.4834	
1900.07	62.8314	
1900.07	62.8298	
1999.9	63.0647	
2099.93	63.227	
2099.92	63.2264	
2199.95	63.3198	
2199.95	63.3162	
2299.97	63.3635	
2399.99	63.352	
2399.99	63.3514	
2500.02	63.2979	
2600.04	63.1971	
2600.04	63.1947	
2700.07	63.0562	
2700.07	63.0554	
2799.9	62.8925	
2899.92	62.687	
2999.95	62.4466	
2999.95	62.4507	
3099.97	62.1912	
3200	61.8967	
3199.99	61.8986	
3300.02	61.5845	
3300.01	61.5827	
3400.04	61.249	
3499.87	60.8937	
3499.87	60.8875	
3599.9	60.5165	
3699.92	60.1148	
3699.93	60.1103	
3739.71	60.8795	
3899.97	59.2621	
3899.97	59.2563	
3999.99	58.8045	
3999.99	58.7999	
4100.01	58.3283	
4200.04	57.8427	
4200.04	57.8422	
4299.87	57.3414	
4399.9	56.8228	
4399.9	56.8192	
4499.92	56.28	
4599.94	55.7331	
4599.94	55.7319	
4699.96	55.1673	
4799.99	54.5904	
4799.99	54.5858	
4900.01	53.9887	
4900.01	53.9899	
5000.04	53.3816	
5099.87	52.7594	
5099.87	52.7559	
5199.89	52.1214	
5299.91	51.476	
5299.91	51.4743	
5399.94	50.8111	
5499.97	50.135	
5499.96	50.1338	
5599.99	49.4454	
5700.01	48.7455	
5700.01	48.7398	
5800.03	48.0273	
5899.87	47.3033	
5899.87	47.3025	
5999.89	46.5599	
5999.89	46.5581	
6099.91	45.8198	
6199.94	45.0533	
6199.94	45.0485	
6299.96	44.2783	
6399.98	43.4892	
6399.98	43.4874	
6500	42.6935	
6599.84	41.8879	
6599.84	41.883	
6699.87	41.0679	
6699.87	41.0649	
6799.89	40.2397	
6899.91	39.4044	
6899.91	39.4009	
6999.93	38.5566	
7099.96	37.7012	
7099.96	37.7003	
7199.98	36.8353	
7300	35.9679	
7300	35.9586	
7399.84	35.0848	
7399.84	35.0789	
7499.86	34.1874	
7599.89	33.2988	
7599.88	33.2919	
7699.91	32.3924	
7799.93	31.4823	
7799.93	31.4812	
7899.95	30.5684	
7999.98	29.6479	
7999.98	29.646	
8100	28.7201	
8199.84	27.7915	
8199.84	27.7898	
8299.86	26.8613	
8399.88	25.9281	
8399.88	25.9259	
8399.88	25.9225	
8499.9	24.9836	
8599.93	24.0419	
8699.95	23.1038	
8699.95	23.1016	
8799.97	22.1553	
8900	21.2124	
8900	21.2068	
8999.83	20.2668	
9099.85	19.3201	
9099.86	19.3192	
9199.88	18.3777	
9299.9	17.4369	
9299.9	17.4392	
9399.92	16.4966	
9499.95	15.561	
9499.95	15.5563	
9599.97	14.6273	
9699.81	13.6944	
9699.81	13.6985	
9799.83	12.7763	
9899.85	11.85	
9899.85	11.8512	
9999.88	10.9319	
10099.9	10.0188	
10099.9	10.0215	
10199.9	9.11504	
10299.9	8.21555	
10299.9	8.215	
10400	7.31944	
10499.8	6.4338	
10499.8	6.43621	
10599.8	5.55405	
10699.8	4.68237	
10699.8	4.68374	
10799.9	3.81865	
10899.9	2.96505	
10899.9	2.96393	
10999.9	2.11752	
11099.9	1.27548	
11099.9	1.28051	
11200	0.44893	
11200	0.449085	
11299.8	-0.370203	
11399.8	-1.18304	
11399.8	-1.18221	
11499.8	-1.98376	
11599.9	-2.77914	
11599.9	-2.77544	
11699.9	-3.56154	
11799.9	-4.33787	
11799.9	-4.33405	
11899.9	-5.09463	
12000	-5.85118	
12099.8	-6.5916	
12099.8	-6.58778	
12199.8	-7.33139	
12299.8	-8.04945	
12299.8	-8.04496	
12399.9	-8.7605	
12499.9	-9.45917	
12499.9	-9.46014	
12599.9	-10.1515	
12699.9	-10.8354	
12699.9	-10.8303	
12799.8	-11.5073	
12799.8	-11.5015	
12899.8	-12.1632	
12999.8	-12.8141	
12999.8	-12.8168	
13099.8	-13.4575	
13199.9	-14.0895	
13199.9	-14.086	
13299.9	-14.7111	
13399.9	-15.3222	
13399.9	-15.3201	
13499.9	-15.9159	
13599.8	-16.5142	
13599.8	-16.5097	
13699.8	-17.0947	
13799.8	-17.6672	
13799.8	-17.6647	
13899.8	-18.2348	
13999.9	-18.7818	
13999.9	-18.7834	
14099.9	-19.3265	
14199.9	-19.8654	
14199.9	-19.8584	
14299.9	-20.3888	
14299.9	-20.3856	
14399.8	-20.9041	
14499.8	-21.4111	
14499.8	-21.4086	
14599.8	-21.9119	
14699.8	-22.4091	
14799.9	-22.8881	
14799.9	-22.8845	
14899.9	-23.3636	
14999.9	-23.8298	
14999.9	-23.8269	
14999.9	-23.826	
15099.9	-24.286	
15199.8	-24.7381	
15299.8	-25.1825	
15299.8	-25.183	
15399.8	-25.617	
15499.8	-26.0455	
15499.8	-26.0434	
15599.9	-26.4663	
15699.9	-26.8816	
15699.9	-26.8824	
15799.9	-27.2861	
15899.7	-27.6894	
15899.7	-27.6871	
15999.8	-28.0786	
16099.8	-28.4701	
16099.8	-28.4654	
16199.8	-28.8431	
16299.8	-29.2189	
16299.8	-29.2164	
16399.9	-29.5887	
16399.9	-29.5848	
16499.9	-29.9444	
16599.9	-30.3002	
16599.9	-30.2982	
16699.7	-30.6479	
16799.8	-30.9914	
16799.8	-30.9903	
16899.8	-31.328	
16999.8	-31.6564	
16999.8	-31.6575	
17099.8	-31.9806	
17199.8	-32.3001	
17299.9	-32.6157	
17299.9	-32.6168	
17399.9	-32.9222	
17499.7	-33.2234	
17499.7	-33.2263	
17599.8	-33.5239	
17699.8	-33.8184	
17699.8	-33.8183	
17699.8	-33.815	
17899.8	-34.3907	
17899.8	-34.3915	
17999.8	-34.6732	
17999.8	-34.6666	
18099.9	-34.9442	
18199.9	-35.2138	
18199.9	-35.2106	
18299.7	-35.4783	
18399.8	-35.7372	
18399.8	-35.7408	
18499.8	-35.9929	
18599.8	-36.2496	
18599.8	-36.2463	
18699.8	-36.4952	
18799.8	-36.7421	
18799.8	-36.7395	
18899.9	-36.9796	
18999.7	-37.2185	
18999.7	-37.2136	
19099.7	-37.4459	
19199.8	-37.6761	
19199.8	-37.6734	
19299.8	-37.9002	
19299.8	-37.8973	
19399.8	-38.1193	
19499.8	-38.3323	
19499.8	-38.3349	
19599.8	-38.5512	
19699.9	-38.7617	
19799.7	-38.9691	
19799.7	-38.9686	
19899.7	-39.1701	
19999.7	-39.3559	
19999.8	-39.3683	
20099.8	-39.5678	
20199.8	-39.7624	
20199.8	-39.7624	
20299.8	-39.9528	
20399.8	-40.142	
20399.8	-40.1435	
20499.9	-40.3202	
20499.9	-40.3234	
20599.7	-40.5063	
20699.7	-40.6834	
20699.7	-40.6833	
20799.7	-40.8616	
20899.8	-41.0338	
20899.8	-41.0329	
20999.8	-41.2006	
21099.8	-41.3741	
21099.8	-41.3711	
21199.8	-41.5347	
21299.9	-41.7006	
21299.9	-41.6981	
21399.7	-41.8587	
21499.7	-42.0145	
21499.7	-42.011	
21599.7	-42.1717	
21699.8	-42.3205	
21699.8	-42.3238	
21799.8	-42.4737	
21899.8	-42.6198	
21899.8	-42.6164	
21999.8	-42.7607	
22099.7	-42.9081	
22099.7	-42.9058	
22199.7	-43.0464	
22199.7	-43.048	
22299.7	-43.1872	
22399.7	-43.3234	
22399.7	-43.3234	
22499.8	-43.4591	
22599.8	-43.5884	
22599.8	-43.5872	
22699.8	-43.7188	
22799.8	-43.8497	
22799.8	-43.8463	
22899.7	-43.9708	
22999.7	-44.0968	
22999.7	-44.093	
23099.7	-44.2187	
23199.7	-44.337	
23199.7	-44.3363	
23299.8	-44.4572	
23399.8	-44.5711	
23399.8	-44.5739	
23499.8	-44.6882	
23599.8	-44.8015	
23599.8	-44.8016	
23699.7	-44.9131	
23799.7	-45.0173	
23799.7	-45.0154	
23899.7	-45.1291	
23999.7	-45.2337	
23999.7	-45.2333	
24099.8	-45.3393	
24099.8	-45.3402	
24199.8	-45.4404	
24299.8	-45.5416	
24299.8	-45.5422	
24399.8	-45.6393	
24499.7	-45.7361	
24499.7	-45.7399	
24599.7	-45.8361	
24699.7	-45.9298	
24699.7	-45.9293	
24799.7	-46.0242	
24899.8	-46.1155	
24899.8	-46.1161	
24999.8	-46.2136	
25099.8	-46.2938	
25099.8	-46.2943	
25199.6	-46.3834	
25299.7	-46.4695	
25299.7	-46.4695	
25399.7	-46.553	
25399.7	-46.5533	
25499.7	-46.637	
25599.7	-46.7178	
25599.7	-46.7186	
25699.8	-46.8002	
25799.8	-46.8813	
25799.8	-46.8799	
25899.8	-46.9578	
25899.8	-46.9586	
25999.6	-47.0304	
26099.7	-47.1093	
26099.7	-47.1109	
26199.7	-47.1838	
26299.7	-47.259	
26299.7	-47.2572	
26399.7	-47.3312	
26499.8	-47.4013	
26499.8	-47.4026	
26599.8	-47.4703	
26699.8	-47.54	
26699.8	-47.5431	
26799.6	-47.61	
26899.7	-47.6736	
26899.7	-47.673	
26999.7	-47.7419	
27099.7	-47.8051	
27099.7	-47.8054	
27199.7	-47.8639	
27199.7	-47.868	
27299.7	-47.9331	
27399.8	-47.9956	
27399.8	-47.9934	
27499.8	-48.0531	
27599.6	-48.1115	
27599.6	-48.1133	
27699.6	-48.1679	
27799.7	-48.2239	
27799.7	-48.223	
27899.7	-48.284	
27999.7	-48.3354	
27999.7	-48.3374	
28099.7	-48.3962	
28199.8	-48.4475	
28199.8	-48.4496	
28299.6	-48.4941	
28299.6	-48.4997	
28399.6	-48.5538	
28499.6	-48.6032	
28499.6	-48.5994	
28502.9	-48.6495	
28699.7	-48.7005	
28699.7	-48.702	
28799.7	-48.7487	
28899.7	-48.7987	
28899.7	-48.7999	
28999.8	-48.8449	
29099.6	-48.8925	
29099.6	-48.8916	
29199.6	-48.9374	
29299.6	-48.9807	
29299.6	-48.9818	
29399.7	-49.0198	
29499.7	-49.0668	
29499.7	-49.0643	
29599.7	-49.1091	
29699.7	-49.1492	
29699.7	-49.1488	
29799.8	-49.1886	
29799.8	-49.1898	
29899.6	-49.2274	
29999.6	-49.2717	
29999.6	-49.2679	
30099.6	-49.3056	
30199.7	-49.3433	
30199.7	-49.3431	
30299.7	-49.3849	
30399.7	-49.4166	
30399.7	-49.4155	
30499.7	-49.4488	
30599.6	-49.4878	
30599.6	-49.488	
30699.6	-49.5201	
30799.6	-49.5529	
30799.6	-49.5545	
30899.6	-49.5854	
30899.6	-49.5852	
30999.7	-49.615	
31099.7	-49.6504	
31099.7	-49.6514	
31199.7	-49.6824	
31299.7	-49.7105	
31299.7	-49.7149	
31399.6	-49.742	
31431	-49.7386	
31499.6	-49.768	
31599.6	-49.7968	
31699.6	-49.8289	
31699.6	-49.8249	
31799.7	-49.8537	
31899.7	-49.8804	
31899.7	-49.8824	
31999.7	-49.9071	
32099.7	-49.9321	
32099.7	-49.9304	
32199.6	-49.954	
32299.6	-49.9821	
32299.6	-49.9825	
32399.6	-50.0052	
32399.6	-50.0067	
32499.6	-50.0296	
32599.7	-50.052	
32599.7	-50.0556	
32699.7	-50.0718	
32799.7	-50.093	
32799.7	-50.0933	
32899.7	-50.1157	
32999.6	-50.1356	
33099.6	-50.1542	
33099.6	-50.1534	
33199.6	-50.1733	
33299.6	-50.1954	
33299.6	-50.1935	
33399.7	-50.212	
33499.7	-50.228	
33499.7	-50.2267	
33499.7	-50.2309	
33599.7	-50.2486	
33699.5	-50.2628	
33799.6	-50.2805	
33799.6	-50.2843	
33899.6	-50.3006	
33999.6	-50.3117	
33999.6	-50.3151	
34099.6	-50.3299	
34199.7	-50.3411	
34203.3	-50.3206	
34299.7	-50.3646	
34399.7	-50.3729	
34499.5	-50.3804	
34499.5	-50.3818	
34599.6	-50.3987	
34699.6	-50.4122	
34699.6	-50.4063	
34799.6	-50.4224	
34799.6	-50.4239	
34899.6	-50.4299	
34999.6	-50.4441	
34999.6	-50.4421	
35099.7	-50.4571	
35199.7	-50.4648	
35199.7	-50.4649	
35299.5	-50.4776	
35399.6	-50.487	
35399.6	-50.486	
35499.6	-50.4906	
35599.6	-50.5052	
35599.6	-50.506	
35699.6	-50.526	
35799.7	-50.5216	
35799.6	-50.5232	
35899.7	-50.5275	
35999.7	-50.536	
35999.7	-50.5447	
36099.5	-50.5437	
36199.6	-50.5471	
36199.6	-50.5484	
36299.6	-50.5573	
36399.6	-50.5611	
36399.6	-50.5589	
36499.6	-50.5648	
36599.6	-50.5738	
36599.6	-50.5707	
36699.7	-50.5819	
36799.5	-50.5835	
36799.5	-50.584	
36899.5	-50.5848	
36999.6	-50.5922	
36999.6	-50.586	
37099.6	-50.5921	
37199.6	-50.5937	
37199.6	-50.5933	
37299.6	-50.5994	
37399.6	-50.6014	
37399.6	-50.5994	
37431	-50.6169	
37599.5	-50.6075	
37599.5	-50.6034	
37699.5	-50.6026	
37699.5	-50.6062	
37799.5	-50.6065	
37899.6	-50.6076	
37899.6	-50.6076	
37999.6	-50.6067	
38099.6	-50.6066	
38099.6	-50.6098	
38199.6	-50.6062	
38299.7	-50.6074	
38399.5	-50.608	
38399.5	-50.6074	
38499.5	-50.5953	
38599.5	-50.6076	
38599.5	-50.6052	
38699.6	-50.6046	
38799.6	-50.6051	
38799.6	-50.6028	
38899.6	-50.6007	
38999.6	-50.5969	
38999.6	-50.5992	
39099.7	-50.5938	
39099.7	-50.5939	
39199.5	-50.5922	
39299.5	-50.5883	
39299.5	-50.5847	
39399.5	-50.5868	
39499.6	-50.5741	
39499.6	-50.5745	
39599.6	-50.5813	
39699.6	-50.57	
39699.6	-50.5696	
39799.6	-50.5681	
39899.5	-50.5604	
39899.5	-50.5627	
39999.5	-50.5551	
40099.5	-50.5541	
40099.5	-50.5499	
40199.5	-50.546	
40299.6	-50.537	
40299.6	-50.5399	
40399.6	-50.5328	
40399.6	-50.5324	
40499.6	-50.5284	
40599.6	-50.5221	
40599.6	-50.5181	
40699.5	-50.5139	
40799.5	-50.5029	
40899.5	-50.501	
40899.5	-50.4969	
40999.5	-50.4871	
41099.6	-50.4827	
41099.6	-50.485	
41199.6	-50.4784	
41299.6	-50.4633	
41299.6	-50.4653	
41399.6	-50.4593	
41499.5	-50.4537	
41499.5	-50.4469	
41499.5	-50.4518	
41599.5	-50.4366	
41699.5	-50.4349	
41799.5	-50.4224	
41799.5	-50.4213	
41899.6	-50.4095	
41999.6	-50.3992	
41999.6	-50.4008	
42099.6	-50.3953	
42199.6	-50.3808	
42199.6	-50.3785	
42299.5	-50.3731	
42399.5	-50.3554	
42499.5	-50.347	
42499.5	-50.348	
42599.5	-50.3396	
42699.6	-50.324	
42699.6	-50.3224	
42799.6	-50.3133	
42799.6	-50.3164	
42899.6	-50.3005	
42999.4	-50.2922	
42999.4	-50.2867	
43099.5	-50.2744	
43099.5	-50.2769	
43199.5	-50.2648	
43299.5	-50.2535	
43399.5	-50.2358	
43399.5	-50.2409	
43499.6	-50.2246	
43599.6	-50.213	
43599.6	-50.214	
43699.6	-50.1993	
43799.4	-50.1882	
43899.5	-50.1711	
43899.5	-50.1729	
43999.5	-50.1558	
43999.5	-50.1575	
44099.5	-50.1476	
44199.5	-50.1304	
44199.5	-50.1269	
44299.5	-50.1141	
44399.6	-50.1013	
44399.6	-50.1005	
44499.6	-50.0854	
44599.4	-50.0712	
44599.4	-50.0695	
44699.5	-50.0547	
44799.5	-50.0419	
44799.5	-50.0386	
44899.5	-50.0266	
44999.5	-50.0088	
44999.5	-50.0099	
45099.5	-49.994	
45199.6	-49.9752	
45199.6	-49.9746	
45299.6	-49.9312	
45299.6	-49.9564	
45399.4	-49.9376	
45499.5	-49.9186	
45599.5	-49.9037	
45599.5	-49.9064	
45699.5	-49.8884	
45799.5	-49.8677	
45799.5	-49.8706	
45899.5	-49.8517	
45999.6	-49.8335	
45999.6	-49.8338	
46099.4	-49.8205	
46099.4	-49.8184	
46199.4	-49.8001	
46299.5	-49.7877	
46299.5	-49.788	
46399.5	-49.7655	
46499.5	-49.7511	
46499.5	-49.7437	
46599.5	-49.7256	
46699.5	-49.7119	
46699.5	-49.7089	
46799.6	-49.6898	
46899.4	-49.6736	
46899.4	-49.6731	
46999.4	-49.6497	
46999.4	-49.652	
47099.4	-49.6345	
47199.3	-49.6191	
47199.5	-49.6161	
47299.5	-49.5987	
47399.5	-49.5779	
47399.5	-49.5736	
47499.5	-49.5595	
47599.6	-49.5386	
47699.4	-49.519	
47699.4	-49.5209	
47799.4	-49.4972	
47799.4	-49.4966	
47899.4	-49.4764	
47999.5	-49.4581	
47999.5	-49.4566	
48099.5	-49.4353	
48199.5	-49.4149	
48199.5	-49.4169	
48299.5	-49.3951	
48399.6	-49.369	
48399.6	-49.3723	
48499.4	-49.3548	
48599.4	-49.3316	
48599.4	-49.3336	
48699.4	-49.3102	
48799.5	-49.2875	
48799.5	-49.2899	
48899.5	-49.2656	
48999.5	-49.242	
48999.5	-49.2495	
49099.5	-49.2236	
49199.4	-49.1972	
49199.4	-49.1983	
49299.4	-49.1847	
49399.4	-49.1597	
49399.4	-49.1565	
49499.4	-49.1339	
49599.5	-49.1125	
49599.5	-49.1154	
49699.5	-49.0879	
