Frequency (Hz) - Plot 0	Amplitude (V) - Plot 0	
1000	4.92853	
1000	4.92849	
1100	4.92834	
1200	4.92814	
1200	4.92829	
1300	4.92777	
1400	4.92712	
1400	4.92736	
1500	4.92677	
1600	4.92615	
1600	4.92653	
1700	4.92604	
1700	4.92581	
1800	4.92542	
1900	4.92485	
1900	4.9248	
2000	4.92421	
2100	4.92385	
2100	4.9239	
2200	4.92309	
2300	4.92239	
2300	4.92257	
2400	4.92189	
2500	4.92091	
2500	4.9209	
2600	4.92045	
2700	4.91971	
2700	4.91985	
2800	4.91878	
2900	4.91848	
2900	4.91835	
3000	4.9172	
3000	4.91732	
3100	4.9166	
3200	4.91603	
3200	4.9157	
3300	4.9149	
3400	4.91404	
3400	4.91438	
3500	4.9135	
3600	4.91244	
3600	4.91232	
3700	4.91148	
3800	4.91071	
3800	4.91074	
3900	4.90952	
3900	4.90954	
4000	4.9087	
4100	4.90783	
4100	4.90774	
4200	4.90664	
4300	4.90548	
4300	4.90537	
4400	4.90437	
4400	4.90433	
4500	4.90333	
4600	4.90214	
4600	4.90242	
4700	4.90112	
4800	4.90091	
4800	4.90009	
4900	4.89905	
5000	4.89798	
5000	4.89774	
5100	4.89693	
5200	4.8957	
5200	4.89545	
5300	4.89423	
5400	4.89299	
5400	4.89304	
5500	4.89199	
5600	4.89035	
5600	4.89029	
5700	4.88895	
5700	4.88898	
5800	4.88789	
5900	4.88663	
5900	4.88658	
6000	4.88535	
6100	4.88416	
6100	4.88409	
6200	4.88245	
6300	4.88121	
6300	4.88122	
6400	4.87995	
6500	4.87858	
6500	4.87848	
6600	4.87733	
6600	4.87739	
6700	4.87615	
6800	4.8747	
6800	4.875	
6900	4.87342	
7000	4.8722	
7000	4.87231	
7100	4.87094	
7200	4.86968	
7200	4.86974	
7300	4.86821	
7400	4.86689	
7400	4.86708	
7500	4.86564	
7600	4.86459	
7600	4.86456	
7600	4.86443	
7800	4.86234	
7800	4.86213	
7900	4.86114	
7954	4.82509	
8000	4.85986	
8100	4.85892	
8100	4.85876	
8200	4.85792	
8300	4.85667	
8300	4.85681	
8400	4.85548	
8400	4.85579	
8500	4.85464	
8509	4.84029	
8600	4.8537	
8700	4.85296	
8800	4.852	
8800	4.85189	
8900	4.85103	
9000	4.85021	
9000	4.85035	
9100	4.84958	
9200	4.849	
9200	4.84904	
9300	4.8481	
9300	4.84815	
9400	4.84759	
9500	4.84678	
9600	4.84617	
9600	4.84618	
9700	4.84583	
9700	4.8459	
9800	4.84519	
9900	4.8448	
9900	4.845	
10000	4.84456	
10100	4.844	
10100	4.84399	
10200	4.84343	
10300	4.84349	
10300	4.84348	
10400	4.84312	
10500	4.84298	
10500	4.84277	
10500	4.84313	
10700	4.84258	
10700	4.84262	
10800	4.84264	
10900	4.84239	
10900	4.84228	
11000	4.84231	
11100	4.84241	
11100	4.84231	
11200	4.84254	
11300	4.84246	
11300	4.84232	
11400	4.84265	
11500	4.84287	
11500	4.84286	
11600	4.84323	
11600	4.843	
11700	4.84312	
11800	4.84309	
11800	4.84325	
11900	4.84346	
12000	4.84387	
12000	4.8437	
12100	4.84409	
12200	4.84454	
12200	4.84423	
12300	4.8446	
12400	4.84523	
12400	4.84518	
12500	4.84505	
12600	4.84563	
12600	4.8456	
12700	4.84611	
12800	4.84652	
12800	4.84646	
12900	4.847	
12900	4.84687	
13000	4.84719	
13100	4.84761	
13200	4.84823	
13200	4.84828	
13300	4.8485	
13400	4.84908	
13400	4.84896	
13500	4.84961	
13500	4.84961	
13600	4.84989	
13700	4.85066	
13700	4.8506	
13800	4.85084	
13900	4.85145	
13900	4.85149	
14000	4.85195	
14100	4.85239	
14100	4.85247	
14200	4.8529	
14300	4.85351	
14300	4.85356	
14400	4.85375	
14500	4.85446	
14500	4.85434	
14600	4.85479	
14700	4.85515	
14700	4.85528	
14800	4.8558	
14800	4.85587	
14900	4.85632	
15000	4.85686	
15000	4.85678	
15100	4.85733	
15200	4.85801	
15200	4.85802	
15300	4.85859	
15400	4.85884	
15500	4.85942	
15500	4.85927	
15600	4.85998	
15600	4.86002	
15700	4.86035	
15800	4.86094	
15800	4.86089	
15900	4.86132	
16000	4.86186	
16100	4.86226	
16100	4.86224	
16200	4.86256	
16200	4.86274	
16300	4.86323	
16400	4.86373	
16400	4.86365	
16500	4.86412	
16600	4.86457	
16600	4.86463	
16700	4.86528	
16800	4.86554	
16800	4.86567	
16900	4.86629	
17000	4.86646	
17000	4.86636	
17100	4.86679	
17200	4.8672	
17200	4.86714	
17300	4.86785	
17300	4.86776	
17400	4.86832	
17500	4.86868	
17500	4.86866	
17600	4.86918	
17700	4.86964	
17700	4.86931	
17800	4.86984	
17900	4.87026	
17900	4.87027	
18000	4.87064	
18100	4.87123	
18100	4.87114	
18200	4.8715	
18300	4.87188	
18300	4.87159	
18400	4.87224	
18500	4.87271	
18500	4.87269	
18600	4.87309	
18700	4.87336	
18700	4.87372	
18800	4.87359	
18900	4.87391	
18900	4.87407	
19000	4.87448	
19100	4.8747	
19100	4.87491	
19200	4.87522	
19300	4.87546	
19300	4.87535	
19400	4.87601	
19404	4.87604	
19500	4.87612	
19600	4.87654	
19700	4.87687	
19700	4.87698	
19800	4.8772	
19900	4.8776	
19900	4.87758	
20000	4.87785	
20100	4.87831	
20100	4.87829	
20100	4.87829	
20300	4.8789	
20300	4.87877	
20400	4.87897	
20500	4.87948	
20500	4.87968	
20600	4.87954	
20700	4.88007	
20700	4.87993	
20800	4.88039	
20900	4.88081	
20900	4.88064	
21000	4.88086	
21100	4.88112	
21100	4.88131	
21200	4.88147	
21300	4.88195	
21300	4.88192	
21400	4.88236	
21400	4.88186	
21500	4.88244	
21600	4.88285	
21600	4.88282	
21700	4.88316	
21800	4.88309	
21800	4.88314	
21900	4.88342	
22000	4.88377	
22000	4.88355	
22100	4.8838	
22200	4.88426	
22200	4.88408	
22300	4.88455	
22400	4.88472	
22400	4.88465	
22500	4.88506	
22600	4.88522	
22600	4.8852	
22700	4.88528	
22700	4.88538	
22800	4.88564	
22900	4.8858	
23000	4.88607	
23000	4.88588	
23100	4.88613	
23200	4.88645	
23200	4.8865	
23300	4.88687	
23400	4.88706	
23400	4.88699	
23500	4.8871	
23600	4.88743	
23600	4.88733	
23700	4.88757	
23800	4.88807	
23800	4.88794	
23900	4.88822	
24000	4.88839	
24000	4.88849	
24100	4.88856	
24100	4.88872	
24200	4.88853	
24300	4.88881	
24300	4.88902	
24400	4.88915	
24500	4.88936	
24600	4.88964	
24600	4.88965	
24700	4.88986	
24700	4.88993	
24800	4.88981	
24900	4.88992	
25000	4.89012	
25000	4.89042	
25100	4.89048	
25200	4.89075	
25200	4.89082	
25300	4.89072	
25300	4.8911	
25400	4.8912	
25500	4.89135	
25500	4.89131	
25600	4.89151	
25700	4.89165	
25700	4.89171	
25800	4.89171	
25900	4.89205	
25900	4.89188	
26000	4.89189	
26100	4.8924	
26100	4.89216	
26200	4.89255	
26300	4.89261	
26300	4.89255	
26400	4.8926	
26400	4.89258	
26500	4.89291	
26600	4.89319	
26700	4.89344	
26700	4.89341	
26800	4.89355	
26800	4.89336	
26900	4.89369	
27000	4.89377	
27100	4.89381	
27100	4.89384	
27200	4.8941	
27200	4.89395	
27300	4.89409	
27400	4.89458	
27400	4.8942	
27500	4.89456	
27600	4.89456	
27651	4.86248	
27700	4.89481	
27800	4.89496	
27800	4.89492	
27900	4.89499	
28000	4.89502	
28000	4.89524	
28100	4.89527	
28200	4.89557	
28200	4.89556	
28300	4.89555	
28300	4.89565	
28400	4.89542	
28500	4.8959	
28500	4.89598	
28600	4.89604	
28700	4.89615	
28700	4.89624	
28800	4.89642	
28900	4.89626	
28900	4.89668	
29000	4.89663	
29100	4.89673	
29100	4.8967	
29200	4.89676	
29300	4.89686	
29300	4.89686	
29400	4.89693	
29400	4.89714	
29500	4.89726	
29600	4.89731	
29600	4.89726	
29700	4.89737	
29800	4.89762	
29800	4.89764	
29900	4.89766	
30000	4.89771	
30000	4.89763	
30100	4.89779	
30200	4.89808	
30200	4.8979	
30300	4.89799	
30400	4.89825	
30400	4.89827	
30500	4.89831	
30500	4.89829	
30600	4.89851	
30700	4.89855	
30700	4.89853	
30800	4.89852	
30900	4.89867	
30900	4.89877	
31000	4.89869	
31100	4.89883	
31100	4.89919	
31200	4.89885	
31300	4.89933	
31300	4.89929	
31400	4.89927	
31500	4.89925	
31500	4.89964	
31600	4.8998	
31600	4.89944	
31700	4.89969	
31700	4.89984	
31800	4.89992	
31900	4.89995	
32000	4.89992	
32000	4.89997	
32100	4.9001	
32124	4.8795	
32200	4.90041	
32300	4.90004	
32300	4.90012	
32400	4.90028	
32500	4.90027	
32600	4.90039	
32600	4.90062	
32700	4.90051	
32800	4.90062	
32800	4.90074	
32900	4.90078	
33000	4.90074	
33000	4.90089	
33100	4.90094	
33200	4.90097	
33200	4.9011	
33300	4.90101	
33300	4.90125	
33400	4.90124	
33400	4.90125	
33500	4.90117	
33600	4.90123	
33700	4.90167	
33700	4.9016	
33800	4.90159	
33900	4.9017	
33900	4.90174	
34000	4.90165	
34000	4.90163	
34100	4.90161	
34200	4.90165	
34300	4.90167	
34300	4.90171	
34400	4.90177	
34400	4.90198	
34500	4.90209	
34600	4.90195	
34600	4.90178	
34700	4.90222	
34800	4.9023	
34800	4.90203	
34900	4.90237	
35000	4.9022	
35000	4.90225	
35100	4.90258	
35200	4.90261	
35200	4.90255	
35300	4.90268	
35400	4.90284	
35400	4.90271	
35500	4.90271	
35600	4.90305	
35600	4.90276	
35700	4.90314	
35800	4.90314	
35800	4.90327	
35800	4.90286	
36000	4.9032	
36000	4.90312	
36100	4.90347	
36200	4.90326	
36200	4.90333	
36300	4.90337	
36400	4.90319	
36400	4.90359	
36500	4.90349	
36600	4.90362	
36600	4.90371	
36700	4.90373	
36800	4.90375	
36800	4.90386	
36900	4.90387	
37000	4.90396	
37000	4.90399	
37100	4.90389	
37200	4.90412	
37200	4.9039	
37300	4.90401	
37400	4.90434	
37400	4.90395	
37500	4.90424	
37600	4.90396	
37600	4.9042	
37700	4.90434	
37800	4.90442	
37800	4.90454	
37900	4.90438	
38000	4.90435	
38000	4.90457	
38100	4.9047	
38200	4.9045	
38200	4.90458	
38300	4.9047	
38400	4.90458	
38400	4.90469	
38500	4.90469	
38509	4.88957	
38600	4.90486	
38700	4.90499	
38800	4.90512	
38800	4.90489	
38900	4.90531	
39000	4.90523	
39000	4.90482	
39100	4.90511	
39199	4.90501	
39200	4.90515	
39300	4.90512	
39400	4.90543	
39400	4.90517	
39500	4.9054	
39600	4.90554	
39600	4.90529	
39700	4.90519	
39800	4.90527	
39899	4.90554	
39899	4.90547	
39999	4.90561	
39999	4.90585	
40100	4.90554	
40200	4.90538	
40300	4.90566	
40300	4.90588	
40400	4.90589	
40500	4.90568	
40500	4.90573	
40600	4.90598	
40699	4.90588	
40699	4.90584	
40799	4.90588	
40900	4.90625	
40900	4.90624	
40900	4.90594	
41100	4.90619	
41100	4.90615	
41200	4.90608	
41200	4.90607	
41300	4.90622	
41400	4.9064	
41400	4.90623	
41499	4.90662	
41599	4.90655	
41700	4.9064	
41700	4.9063	
41800	4.90634	
41900	4.90641	
41900	4.9066	
42000	4.90656	
42100	4.90646	
42100	4.90653	
42200	4.90641	
42299	4.90664	
42299	4.90658	
42399	4.90672	
42500	4.9067	
42500	4.90676	
42600	4.90684	
42600	4.90677	
42700	4.90684	
42800	4.90656	
42800	4.90682	
42900	4.90695	
42999	4.90694	
42999	4.90663	
43099	4.9068	
43199	4.9068	
43199	4.90698	
43300	4.90659	
43400	4.90704	
43400	4.9071	
43500	4.90686	
43600	4.90719	
43600	4.90672	
43700	4.90697	
43799	4.90694	
43799	4.90714	
43899	4.90701	
43999	4.90751	
43999	4.90704	
44100	4.90729	
44200	4.90723	
44200	4.90707	
44300	4.90737	
44400	4.90749	
44400	4.90761	
44500	4.90746	
44599	4.90743	
44599	4.90744	
44699	4.90747	
44799	4.90766	
44799	4.9077	
44900	4.90775	
45000	4.90783	
45000	4.90777	
45100	4.9076	
45200	4.90772	
45200	4.90775	
45300	4.90768	
45399	4.90801	
45399	4.9079	
45499	4.9078	
45599	4.90789	
45599	4.90791	
45700	4.90796	
45800	4.90798	
45800	4.90797	
45900	4.90815	
46000	4.90801	
46000	4.90826	
46099	4.90795	
46199	4.90788	
46199	4.90802	
46299	4.90809	
46399	4.90819	
46399	4.90821	
46500	4.90828	
46600	4.90816	
46600	4.90825	
46700	4.90809	
46700	4.90809	
46800	4.90829	
46899	4.90855	
46999	4.90849	
46999	4.90808	
47099	4.90818	
47199	4.9083	
47199	4.9083	
47299	4.9083	
47400	4.90841	
47400	4.90831	
47500	4.90831	
47600	4.90845	
47600	4.90839	
47699	4.90861	
47699	4.90844	
47799	4.90848	
47899	4.90875	
47999	4.90864	
47999	4.90875	
48099	4.9085	
48200	4.90866	
48200	4.9084	
48300	4.90856	
48300	4.90855	
48400	4.90855	
48499	4.9088	
48599	4.90873	
48599	4.90858	
48699	4.90871	
48734	4.8757	
48799	4.90891	
48899	4.90895	
48899	4.90893	
49000	4.90847	
49100	4.90897	
49100	4.90878	
49199	4.90883	
49299	4.90897	
49299	4.90897	
49399	4.90881	
49499	4.90947	
49499	4.90916	
49599	4.90907	
49699	4.90914	
49699	4.90913	
